# SAXS profile: number of points = 502, q_min = 0, q_max = 0.35, delta_q = 0.0007
#    q    intensity    error
0.00000000 5719258.00000000 1201.04418945
0.00070000 5718979.50000000 1604.17370605
0.00140000 5718141.00000000 2264.38378906
0.00210000 5716723.50000000 3189.93164062
0.00280000 5714754.00000000 3908.89160156
0.00350000 5712233.50000000 4626.90917969
0.00420000 5709146.00000000 4453.13378906
0.00490000 5705506.50000000 5049.37353516
0.00560000 5701308.00000000 6773.15380859
0.00630000 5696562.00000000 8109.05566406
0.00700000 5691249.50000000 8195.39941406
0.00770000 5685371.00000000 8161.35009766
0.00840000 5678934.00000000 12010.94531250
0.00910000 5671966.00000000 12889.54199219
0.00980000 5664464.50000000 11929.36230469
0.01050000 5656391.50000000 13660.18554688
0.01120000 5647793.00000000 11369.00683594
0.01190000 5638639.50000000 12001.84375000
0.01260000 5628949.50000000 13779.66699219
0.01330000 5618719.00000000 12052.15234375
0.01400000 5607961.00000000 22712.24218750
0.01470000 5596664.00000000 18452.20117188
0.01540000 5584851.00000000 13738.73339844
0.01610000 5572488.50000000 18581.46093750
0.01680000 5559627.50000000 19297.46679688
0.01750000 5546260.50000000 21547.22265625
0.01820000 5532378.00000000 22306.54687500
0.01890000 5517978.50000000 21412.51562500
0.01960000 5503029.50000000 18704.79687500
0.02030000 5487619.00000000 21039.53125000
0.02100000 5471709.50000000 19862.30468750
0.02170000 5455314.00000000 26005.48046875
0.02240000 5438432.50000000 20997.78710938
0.02310000 5421049.50000000 21556.80273438
0.02380000 5403200.00000000 20099.90234375
0.02450000 5384861.50000000 20597.09375000
0.02520000 5366076.50000000 23197.54687500
0.02590000 5346787.50000000 23731.71484375
0.02660000 5327048.50000000 26464.77734375
0.02730000 5306874.50000000 27033.21679688
0.02800000 5286246.00000000 36792.26953125
0.02870000 5265176.50000000 28147.63281250
0.02940000 5243697.00000000 23911.25781250
0.03010000 5221759.00000000 24359.50585938
0.03080000 5199401.50000000 29761.37500000
0.03150000 5176624.00000000 32806.85546875
0.03220000 5153427.50000000 38496.10156250
0.03290000 5129835.50000000 33910.77734375
0.03360000 5105829.50000000 31799.10546875
0.03430000 5081437.00000000 26906.20898438
0.03500000 5056641.00000000 40958.79296875
0.03570000 5031497.50000000 49857.10546875
0.03640000 5005977.50000000 28083.53125000
0.03710000 4980049.00000000 28460.97851562
0.03780000 4953767.00000000 31714.01562500
0.03850000 4927173.50000000 40870.90234375
0.03920000 4900201.00000000 32503.03320312
0.03990000 4872893.50000000 35874.23828125
0.04060000 4845230.50000000 45351.35546875
0.04130000 4817274.00000000 36678.72265625
0.04200000 4788993.00000000 37066.80468750
0.04270000 4760391.00000000 46806.54296875
0.04340000 4731470.50000000 50418.54687500
0.04410000 4702269.00000000 31810.84765625
0.04480000 4672792.00000000 32102.08007812
0.04550000 4642984.50000000 42100.26171875
0.04620000 4612956.50000000 35925.70312500
0.04690000 4582608.00000000 39511.24218750
0.04760000 4552030.00000000 43139.58593750
0.04830000 4521192.00000000 60181.58593750
0.04900000 4490110.50000000 37043.41015625
0.04970000 4458777.00000000 37299.89843750
0.05040000 4427211.50000000 34133.79687500
0.05110000 4395460.00000000 44655.67187500
0.05180000 4363451.00000000 55293.64843750
0.05250000 4331278.50000000 55613.61328125
0.05320000 4298868.50000000 45434.74218750
0.05390000 4266282.50000000 59725.82031250
0.05460000 4233512.00000000 38838.23828125
0.05530000 4200577.50000000 39021.26171875
0.05600000 4167457.25000000 39194.93359375
0.05670000 4134182.25000000 53672.01953125
0.05740000 4100755.25000000 43107.14062500
0.05810000 4067176.25000000 68505.47656250
0.05880000 4033447.50000000 43416.02734375
0.05950000 3999611.50000000 36296.47265625
0.06020000 3965654.00000000 50966.58203125
0.06090000 3931570.00000000 40155.08984375
0.06160000 3897385.25000000 36596.44921875
0.06230000 3863092.25000000 44016.07031250
0.06300000 3828724.50000000 55133.63281250
0.06370000 3794242.75000000 36823.12500000
0.06439999 3759705.75000000 44259.25390625
0.06510000 3725085.00000000 44321.06250000
0.06580000 3690423.25000000 44373.64843750
0.06650000 3655684.25000000 55520.70703125
0.06720000 3620910.00000000 51858.67187500
0.06789999 3586088.25000000 48180.88671875
0.06860000 3551229.50000000 37074.83593750
0.06930000 3516367.25000000 59328.14453125
0.07000000 3481461.00000000 40785.31640625
0.07070000 3446549.50000000 55601.45703125
0.07139999 3411635.25000000 66690.64062500
0.07210000 3376722.50000000 51836.06640625
0.07280000 3341827.50000000 40693.42968750
0.07350000 3306937.50000000 44346.03125000
0.07420000 3272081.00000000 59054.51562500
0.07489999 3237260.00000000 58969.92187500
0.07560000 3202462.25000000 44155.54687500
0.07630000 3167716.25000000 47748.56640625
0.07700000 3133010.75000000 47653.09375000
0.07770000 3098363.00000000 36576.17187500
0.07840000 3063774.25000000 43787.46093750
0.07910000 3029276.00000000 40036.42578125
0.07979999 2994830.00000000 47186.53906250
0.08050000 2960468.75000000 39810.90234375
0.08120000 2926194.75000000 43295.97656250
0.08190000 2892013.50000000 39558.40625000
0.08260000 2857936.50000000 39422.37500000
0.08329999 2823957.25000000 39279.83203125
0.08400000 2790086.25000000 42688.32031250
0.08470000 2756347.00000000 38976.12109375
0.08540000 2722701.25000000 49400.69140625
0.08610000 2689202.75000000 56215.09375000
0.08679999 2655835.00000000 45470.54687500
0.08750000 2622597.00000000 45259.46875000
0.08820000 2589505.25000000 48506.60937500
0.08890000 2556556.50000000 37922.67968750
0.08960000 2523767.00000000 41157.58984375
0.09029999 2491136.25000000 34116.10937500
0.09100000 2458670.75000000 44108.55078125
0.09170000 2426365.25000000 37112.46875000
0.09240000 2394224.50000000 43606.01171875
0.09310000 2362262.25000000 43346.32812500
0.09379999 2330475.50000000 33139.35937500
0.09450000 2298881.25000000 49397.21093750
0.09519999 2267470.25000000 49079.39062500
0.09590000 2236253.00000000 39004.72265625
0.09660000 2205221.75000000 32284.44531250
0.09729999 2174405.50000000 60917.05468750
0.09800000 2143778.75000000 38202.13671875
0.09869999 2113378.00000000 37926.67968750
0.09940000 2083168.00000000 50196.01562500
0.10010000 2053188.37500000 37363.92187500
0.10079999 2023412.12500000 33987.25000000
0.10150000 1993861.25000000 33721.17578125
0.10219999 1964530.62500000 48657.49218750
0.10290000 1935432.00000000 33180.07812500
0.10360000 1906553.25000000 47862.10937500
0.10430000 1877913.00000000 38560.12500000
0.10500000 1849506.62500000 35288.58593750
0.10569999 1821329.25000000 37895.48437500
0.10640000 1793399.75000000 34670.00390625
0.10710000 1765703.25000000 42946.31640625
0.10780000 1738256.00000000 45389.33984375
0.10850000 1711055.75000000 30914.49804688
0.10919999 1684098.50000000 33405.77734375
0.10990000 1657391.50000000 38598.98828125
0.11059999 1630929.87500000 27301.76562500
0.11130000 1604733.87500000 29734.91601562
0.11200000 1578779.75000000 32112.37890625
0.11269999 1553086.87500000 34434.26171875
0.11340000 1527655.75000000 34078.94531250
0.11409999 1502477.37500000 28534.29687500
0.11480000 1477558.87500000 25665.19726562
0.11550000 1452904.37500000 35545.30468750
0.11619999 1428508.12500000 25113.17187500
0.11690000 1404377.37500000 52156.46875000
0.11759999 1380509.00000000 36838.87890625
0.11830000 1356907.12500000 31566.40820312
0.11900000 1333561.75000000 28804.93359375
0.11969999 1310479.62500000 30844.10156250
0.12040000 1287675.00000000 30483.12890625
0.12109999 1265129.00000000 34756.25390625
0.12180000 1242846.12500000 22893.22460938
0.12249999 1220834.62500000 29400.74804688
0.12320000 1199088.87500000 29040.73242188
0.12390000 1177603.37500000 26474.87890625
0.12459999 1156388.50000000 23964.99414062
0.12529999 1135444.87500000 30115.40234375
0.12600000 1114760.00000000 23359.79687500
0.12670000 1094336.75000000 31443.03125000
0.12740000 1074188.50000000 20688.86914062
0.12809999 1054292.37500000 26541.28125000
0.12879999 1034668.81250000 34246.50000000
0.12950000 1015304.87500000 31799.34960938
0.13020000 996198.87500000 21565.71289062
0.13090000 977356.75000000 25138.10351562
0.13159999 958777.68750000 19070.08789062
0.13229999 940457.25000000 20684.88476562
0.13300000 922394.06250000 22248.14453125
0.13370000 904588.37500000 27415.81250000
0.13440000 887038.25000000 27023.61914062
0.13509999 869746.56250000 19531.46289062
0.13579999 852703.37500000 17497.47265625
0.13650000 835917.25000000 17240.79296875
0.13720000 819378.00000000 22081.41796875
0.13789999 803091.68750000 18405.65625000
0.13859999 787051.68750000 16480.86132812
0.13929999 771258.31250000 19477.35546875
0.14000000 755709.06250000 17581.57226562
0.14070000 740402.81250000 17310.98828125
0.14139999 725342.56250000 18591.98046875
0.14209999 710514.62500000 18301.43554688
0.14279999 695927.37500000 16512.26757812
0.14350000 681577.56250000 14773.19335938
0.14420000 667461.68750000 21805.97265625
0.14489999 653579.37500000 24316.09375000
0.14559999 639920.68750000 18293.41210938
0.14629999 626496.37500000 13842.43652344
0.14700000 613300.56250000 19061.38085938
0.14770000 600321.75000000 14729.19433594
0.14839999 587568.81250000 15800.89941406
0.14909999 575037.68750000 18125.76171875
0.14979999 562722.56250000 16547.41796875
0.15050000 550621.75000000 13764.16699219
0.15120000 538736.06250000 17219.08203125
0.15189999 527061.31250000 15714.59570312
0.15259999 515595.50000000 14255.18359375
0.15329999 504336.43750000 12840.15234375
0.15400000 493283.87500000 11468.84960938
0.15470000 482431.28125000 13520.61914062
0.15539999 471778.46875000 13281.50683594
0.15609999 461322.68750000 10871.06835938
0.15680000 451064.25000000 14947.36718750
0.15750000 440994.65625000 12581.57714844
0.15820000 431120.03125000 12354.17480469
0.15889999 421429.68750000 12129.58886719
0.15959999 411927.56250000 10915.66796875
0.16030000 402606.75000000 10715.17773438
0.16100000 393470.21875000 12429.72363281
0.16170000 384507.12500000 12199.06542969
0.16239999 375721.84375000 10129.83593750
0.16309999 367111.96875000 14458.33691406
0.16380000 358669.50000000 9752.94140625
0.16450000 350398.71875000 8698.64843750
0.16520000 342294.37500000 10240.07812500
0.16589999 334350.15625000 14229.77441406
0.16659999 326572.68750000 11494.05175781
0.16730000 318951.62500000 12077.90039062
0.16800000 311485.75000000 8685.78027344
0.16869999 304175.50000000 9291.34472656
0.16939999 297017.18750000 9110.11035156
0.17009999 290007.37500000 10420.25390625
0.17080000 283149.50000000 10945.14355469
0.17150000 276430.43750000 7867.90136719
0.17219999 269856.65625000 8413.05078125
0.17289999 263422.06250000 7558.50048828
0.17359999 257125.76562500 7407.53564453
0.17430000 250963.95312500 7918.91650391
0.17500000 244937.64062500 7112.98876953
0.17569999 239040.45312500 10137.22753906
0.17639999 233273.00000000 7448.87304688
0.17709999 227630.96875000 9121.74121094
0.17780000 222115.48437500 6552.85107422
0.17850000 216717.93750000 6418.64355469
0.17919999 211444.40625000 8573.01269531
0.17989999 206285.17187500 6717.05761719
0.18059999 201244.50000000 7126.46972656
0.18130000 196315.57812500 5905.07421875
0.18200000 191500.06250000 6308.01171875
0.18269999 186793.92187500 5147.10644531
0.18339999 182193.01562500 6047.35009766
0.18409999 177698.98437500 5427.19335938
0.18480000 173308.85937500 5796.14160156
0.18550000 169017.60937500 7565.22802734
0.18619999 164829.35937500 4628.40820312
0.18689999 160737.59375000 4530.38867188
0.18759999 156740.15625000 4434.17871094
0.18830000 152838.00000000 4339.83496094
0.18900000 149028.92187500 5096.78906250
0.18969999 145306.65625000 4987.79589844
0.19039999 141673.89062500 6101.18554688
0.19109999 138128.81250000 3980.18139648
0.19180000 134667.34375000 5452.41113281
0.19250000 131291.03125000 3810.72216797
0.19319999 127996.38281250 5219.94824219
0.19389999 124781.31250000 3647.98144531
0.19459999 121644.07031250 3925.94042969
0.19530000 118580.61718750 4189.92724609
0.19599999 115597.10156250 4099.07324219
0.19669999 112685.50781250 4010.02636719
0.19739999 109847.97656250 4249.79833984
0.19809999 107076.68750000 4796.76757812
0.19880000 104377.63281250 4066.65698242
0.19949999 101747.92187500 3672.08251953
0.20019999 99182.31250000  3292.65429688
0.20089999 96681.94531250  2928.01245117
0.20159999 94245.50781250  3150.53295898
0.20230000 91872.72656250  4482.65380859
0.20299999 89561.26562500  3014.63208008
0.20369999 87309.08593750  2680.82543945
0.20439999 85115.30468750  2884.64257812
0.20510000 82979.45312500  3334.90283203
0.20580000 80899.86718750  2509.51391602
0.20649999 78876.63281250  2946.04223633
0.20719999 76905.78125000  3122.29760742
0.20789999 74988.63281250  2349.76855469
0.20860000 73123.16406250  2528.89160156
0.20930000 71310.03125000  2249.47485352
0.20999999 69546.17968750  2421.25024414
0.21069999 67831.60937500  2800.19042969
0.21139999 66164.25000000  2740.39062500
0.21210000 64544.80859375  3507.39721680
0.21280000 62969.78125000  3029.16137695
0.21349999 61442.14062500  2174.59082031
0.21419999 59959.32421875  2516.13305664
0.21489999 58518.67968750  1895.12731934
0.21560000 57120.44921875  2412.59643555
0.21630000 55765.04296875  1999.42773438
0.21699999 54451.81250000  3205.03369141
0.21769999 53175.42187500  2267.74560547
0.21839999 51940.85546875  1709.37341309
0.21910000 50745.62109375  1675.36669922
0.21980000 49589.48046875  1970.88427734
0.22049999 48469.92968750  1771.45471191
0.22119999 47388.11328125  1579.44567871
0.22189999 46341.38281250  1704.36645508
0.22260000 45330.79687500  1520.39489746
0.22330000 44354.40234375  1641.53417969
0.22399999 43412.62500000  2197.76416016
0.22469999 42508.04687500  2446.48681641
0.22539999 41633.85937500  2120.82861328
0.22610000 40792.90625000  2501.29858398
0.22679999 39985.44531250  1366.30261230
0.22749999 39207.88281250  1612.62011719
0.22819999 38462.84375000  1322.35253906
0.22889999 37747.73828125  2082.76904297
0.22960000 37063.72656250  1410.23767090
0.23029999 36410.35156250  1389.58288574
0.23099999 35786.21875000  1618.96850586
0.23169999 35189.93750000  1719.62658691
0.23239999 34621.25390625  1696.92602539
0.23310000 34082.69140625  1436.17639160
0.23379999 33572.42578125  1537.14709473
0.23449999 33089.26953125  1519.54187012
0.23519999 32632.22656250  1503.00769043
0.23589998 32202.49023438  1144.31542969
0.23660000 31799.14648438  1586.65014648
0.23729999 31421.83007812  1235.49060059
0.23799999 31069.75000000  1559.39074707
0.23869999 30743.86914062  1437.01452637
0.23939998 30442.08593750  1536.83813477
0.24010000 30164.21875000  1090.88891602
0.24079999 29911.67382812  1193.38598633
0.24149999 29683.22656250  1079.72729492
0.24219999 29479.54101562  1505.57897949
0.24289998 29296.82421875  1607.73632812
0.24360000 29137.52148438  1389.77233887
0.24429999 29004.45117188  1067.21875000
0.24499999 28891.40234375  1172.70202637
0.24569999 28801.54101562  1065.80102539
0.24640000 28731.91796875  1492.73803711
0.24710000 28686.69335938  1174.33276367
0.24779999 28661.11914062  1176.59619141
0.24849999 28658.11328125  1179.78283691
0.24919999 28674.63085938  1183.77478027
0.24990000 28711.56445312  1620.83959961
0.25059998 28771.10546875  1302.98571777
0.25129998 28848.66601562  1310.13317871
0.25200000 28946.42773438  1318.22033691
0.25270000 29065.82617188  1327.32006836
0.25340000 29202.40429688  1114.36376953
0.25409999 29358.28320312  1348.07360840
0.25479999 29534.13867188  1359.86987305
0.25549999 29728.10546875  1258.16772461
0.25619999 29939.52539062  1732.60021973
0.25689998 30169.64843750  1400.53527832
0.25759998 30417.19726562  1651.83618164
0.25829998 30681.99414062  1432.05126953
0.25900000 30966.40429688  1449.22778320
0.25970000 31266.56445312  1344.94689941
0.26040000 31581.13671875  1609.78527832
0.26109999 31915.65625000  1631.19323730
0.26179999 32266.12695312  1780.70300293
0.26249999 32629.67382812  1805.56286621
0.26319999 33008.79687500  1831.39392090
0.26389998 33406.84375000  1460.16296387
0.26459998 33819.30859375  2290.51391602
0.26529998 34244.35546875  1504.67968750
0.26600000 34684.19921875  1666.92260742
0.26670000 35140.20703125  1693.26599121
0.26740000 35609.53515625  1863.73181152
0.26809999 36091.35937500  1602.51049805
0.26879999 36586.53906250  2072.92016602
0.26949999 37095.39453125  2408.23291016
0.27019998 37619.33984375  1989.46105957
0.27089998 38151.08593750  2178.38867188
0.27159998 38698.68359375  2215.34472656
0.27230000 39256.54296875  1770.25415039
0.27300000 39827.83593750  1636.92407227
0.27370000 40408.20312500  2164.52612305
0.27440000 40999.67187500  2032.43566895
0.27509999 41601.91406250  2412.12060547
0.27579999 42215.09765625  1928.04785156
0.27649999 42837.17187500  2139.71655273
0.27719998 43469.83593750  1813.99609375
0.27789998 44111.65625000  2214.49316406
0.27859998 44763.17578125  2252.84082031
0.27930000 45421.33203125  2482.66186523
0.28000000 46089.57812500  2331.21093750
0.28070000 46764.88281250  2568.86523438
0.28140000 47448.78906250  2210.92382812
0.28209999 48137.67968750  2452.99975586
0.28279999 48836.51953125  2494.76464844
0.28349999 49539.14843750  2114.08300781
0.28419998 50249.69531250  3009.55468750
0.28489998 50965.24609375  3278.46655273
0.28559998 51686.83593750  3110.82373047
0.28630000 52414.49609375  4291.72509766
0.28700000 53144.76171875  2755.02441406
0.28770000 53881.21875000  2799.99145508
0.28839999 54622.33593750  2845.38671875
0.28909999 55365.59375000  2891.08056641
0.28979999 56113.78906250  3181.98828125
0.29049999 56863.97265625  2735.01489258
0.29119998 57618.31640625  2525.41064453
0.29189998 58372.57421875  3333.97851562
0.29259998 59131.73828125  3385.40991211
0.29330000 59890.50781250  3965.79980469
0.29400000 60650.48828125  2952.16259766
0.29470000 61410.89453125  2996.26831055
0.29539999 62173.67578125  2764.24145508
0.29609999 62937.71484375  4207.22900391
0.29679999 63699.21093750  3129.98803711
0.29749998 64461.42578125  3463.51220703
0.29819998 65222.62890625  4683.50634766
0.29889998 65982.72656250  3561.87939453
0.29959998 66740.57031250  3009.33203125
0.30030000 67496.69531250  3355.56445312
0.30100000 68252.48437500  4328.57275391
0.30170000 69004.86718750  4073.11572266
0.30239999 69753.92187500  4126.85107422
0.30309999 70498.73437500  4180.53955078
0.30379999 71242.89062500  4560.11474609
0.30449998 71980.46875000  3958.20581055
0.30519998 72716.76562500  3339.88085938
0.30589998 73446.74218750  3719.23266602
0.30659997 74171.12500000  3764.48095703
0.30730000 74890.89062500  4155.99511719
0.30800000 75607.59375000  3854.85302734
0.30870000 76316.58593750  4608.87304688
0.30939999 77019.81250000  3586.04248047
0.31009999 77717.68750000  4352.03515625
0.31079999 78407.67187500  4767.26464844
0.31149998 79092.57031250  5561.19628906
0.31219998 79769.39062500  4497.07910156
0.31289998 80437.09375000  5681.07031250
0.31360000 81100.02343750  3827.11010742
0.31430000 81752.53906250  4639.78369141
0.31500000 82397.55468750  5858.46630859
0.31569999 83034.82031250  4733.48291016
0.31639999 83663.67187500  6373.16357422
0.31709999 84282.21093750  6032.28808594
0.31779999 84892.82031250  6089.36181641
0.31849998 85493.41406250  6965.36181641
0.31919998 86083.61718750  6615.35351562
0.31989998 86666.71875000  5423.21289062
0.32060000 87236.84375000  4629.13574219
0.32130000 87798.11718750  5093.52001953
0.32200000 88348.68750000  5564.64208984
0.32269999 88886.94531250  6042.26757812
0.32339999 89416.67968750  4786.11718750
0.32409999 89933.49218750  5262.72802734
0.32479998 90440.51562500  6187.75878906
0.32549998 90935.39843750  4453.56103516
0.32619998 91419.42187500  5384.23779297
0.32689998 91890.35156250  5423.55175781
0.32760000 92351.51562500  7283.20996094
0.32830000 92797.92968750  5958.87988281
0.32900000 93233.23437500  5076.54931641
0.32969999 93657.26562500  5575.04248047
0.33039999 94069.75781250  7014.31152344
0.33109999 94467.37500000  5647.07031250
0.33179998 94852.88281250  5682.06689453
0.33249998 95226.77343750  5716.46289062
0.33319998 95585.96093750  8145.93066406
0.33389997 95934.60937500  6746.98486328
0.33460000 96268.18750000  7753.82470703
0.33530000 96588.32031250  5359.63769531
0.33600000 96898.70312500  8816.81250000
0.33669999 97192.87500000  5907.96582031
0.33739999 97474.53125000  6432.14892578
0.33809999 97743.82812500  6463.26171875
0.33879998 97998.95312500  5994.00781250
0.33949998 98241.25000000  6522.97314453
0.34019998 98469.17968750  7055.51318359
0.34089997 98683.91406250  5567.10449219
0.34160000 98885.49218750  8130.76074219
0.34230000 99072.97656250  7652.64453125
0.34299999 99246.76562500  8193.81250000
0.34369999 99409.75781250  5139.98144531
0.34439999 99557.98437500  6705.52880859
0.34509999 99691.57031250  5175.48779297
0.34579998 99813.33593750  5711.51855469
0.34649998 99920.06250000  5208.33300781
0.34719998 100015.29687500 7313.31787109
0.34789997 100097.01562500 5238.57714844
0.34860000 100163.24218750 6828.32861328
0.34930000 100218.55468750 7372.37744141
0.34999999 100261.88281250 9501.81835938
0.35069999 100289.51562500 5819.85058594
